%\*l[nm]	Flux relative to continuum flux
648.25159   0.97249062
648.27600   0.92158308
648.30029   0.85438356
648.32458   0.84452555
648.34900   0.82422939
648.37329   0.81978136
648.39758   0.87706345
648.42194   0.92626963
648.44617   0.93877728
648.47052   0.95402773
648.49475   0.96937048
648.51910   0.95584844
648.54333   0.93970982
648.56763   0.95357552
648.59192   0.97523352
648.61615   0.97348709
648.64038   0.92944731
648.66467   0.90894016
648.68884   0.93008257
648.71313   0.95490483
648.73737   0.96510684
648.76160   0.95627839
648.78577   0.95397280
648.81000   0.96554055
648.83417   0.98523052
648.85840   0.98339578
648.88257   0.95498525
648.90680   0.94392793
648.93097   0.96553917
648.95514   0.99200353
648.97931   0.99594907
649.00342   0.99168498
649.02759   0.95388590
649.05176   0.86742883
649.07587   0.84767708
649.09998   0.91995551
649.12415   0.97836522
649.14825   0.99622605
649.17236   1.00595930
649.19647   0.99746671
649.22058   0.99095518
649.24469   0.94624397
649.26880   0.87500644
649.29285   0.85702591
649.31696   0.90772219
649.34100   0.96740500
649.36511   0.99566133
649.38916   0.99545073
649.41321   0.98349818
649.43726   0.97716017
649.46130   0.98682724
649.48529   0.99781463
649.50934   1.00295470
649.53333   0.95953140
649.55737   0.87705371
649.58142   0.84943092
649.60541   0.91385029
649.62939   0.97987834
649.65344   1.00042900
649.67737   0.99752435
649.70135   0.98459284
649.72534   0.94934748
649.74933   0.93237053
649.77325   0.95541685
649.79724   0.98996490
649.82117   1.00008200
649.84509   1.00422570
649.86902   1.00088970
649.89294   0.99985973
649.91687   0.99849327
649.94080   1.00539900
649.96472   0.99807860
649.98865   1.00085960
650.01257   1.00250290
650.03644   0.99845713
650.06030   1.00397770
650.08417   1.00360790
650.10803   0.99691490
650.13196   0.98997465
650.15582   0.98587031
650.17963   0.98724657
650.20349   0.98980051
650.22736   0.98824125
650.25116   0.98465922
650.27502   0.98067632
650.29883   0.99188077
650.32263   0.98196928
650.34644   0.97294368
650.37024   0.96815833
650.39404   0.95477092
650.41785   0.95369926
650.44165   0.97390986
650.46545   0.99074236
650.48920   0.99734334
650.51294   0.99789453
650.53674   0.99757948
650.56049   0.99796505
650.58423   0.99361667
650.60797   0.99423739
650.63171   0.99581066
650.65540   0.99287746
650.67914   1.00033810
650.70288   0.99869511
650.72662   0.99299647
650.75031   0.97991174
650.77405   0.98260983
650.79773   0.98187743
650.82141   0.95433666
650.84509   0.92659383
650.86877   0.93841957
650.89246   0.97199469
650.91608   0.99283918
650.93976   1.00148280
650.96338   1.00074630
650.98700   1.00086690
651.01062   0.99825734
651.03430   1.00022600
651.05792   1.00009820
651.08154   1.00295720
651.10516   1.01870020
651.12878   1.00338350
651.15234   0.98322161
651.17596   0.95013788
651.19958   0.92054125
651.22314   0.92819444
651.24670   0.96665095
651.27026   0.99367594
651.29382   1.00014200
651.31738   0.99505910
651.34094   0.98916532
651.36450   0.98094510
651.38806   0.98187213
651.41156   0.96321282
651.43512   0.89910048
651.45862   0.84074864
651.48212   0.86580334
651.50562   0.93625264
651.52917   0.96324400
651.55261   0.94711772
651.57611   0.92618436
651.59961   0.90478921
651.62311   0.82434045
651.64655   0.74484918
651.67004   0.76982457
651.69348   0.84545074
651.71692   0.91122013
651.74036   0.95445507
651.76379   0.95652442
651.78723   0.94255102
651.81067   0.94735266
651.83411   0.96172824
651.85754   0.97661831
651.88092   0.96315638
651.90430   0.92278206
651.92767   0.88640451
651.95105   0.89287400
651.97449   0.94255656
651.99786   0.98481863
652.02124   1.00111530
652.04456   1.00427550
652.06799   1.00280530
652.09131   1.00333370
652.11462   1.00430800
652.13800   1.00498640
652.16132   0.99575564
652.18469   0.98851618
652.20795   0.97422304
652.23132   0.98203780
652.25458   0.99763199
652.27789   0.99237263
652.30115   0.97560736
652.32446   0.95469396
652.34778   0.91196969
652.37103   0.87945410
652.39435   0.90389525
652.41760   0.95373929
652.44080   0.98478121
652.46411   1.00022470
652.48737   0.99900319
652.51062   1.00256250
652.53381   0.99545064
652.55701   0.99019104
652.58026   0.99222780
652.60345   0.99706134
652.62671   0.99990877
652.64990   0.99956791
652.67310   1.01038190
652.69629   1.00074430
652.71948   1.00239660
652.74261   0.99842008
652.76581   0.99447619
652.78894   0.99862984
652.81213   0.99958214
652.83533   1.00243600
652.85846   1.00130640
652.88159   1.00127530
652.90472   1.00298990
652.92786   0.99928438
652.95099   1.00121960
652.97406   1.00012540
652.99719   0.99570619
653.02032   0.98434218
653.04340   0.97482587
653.06653   0.97345212
653.08960   0.98688759
653.11267   0.99128059
653.13574   0.99807590
653.15881   0.99804686
653.18188   0.97529001
653.20496   0.92319143
653.22797   0.89313824
653.25104   0.91550998
653.27405   0.96046204
653.29706   0.98570480
653.32013   1.00107610
653.34314   0.98923927
653.36609   0.96067991
653.38910   0.93456083
653.41211   0.93136494
653.43512   0.94996574
653.45813   0.96637627
653.48108   0.97462347
653.50403   0.98157016
653.52704   0.99056909
653.54999   0.99795401
653.57294   0.99482386
653.59589   0.98625600
653.61884   0.98600778
653.64172   0.96690812
653.66467   0.96396076
653.68762   0.96252255
653.71057   0.98083760
653.73346   0.98862454
653.75635   0.99553180
653.77924   0.99853603
653.80212   0.99868745
653.82507   0.99726312
653.84790   0.99977411
653.87079   0.99727874
653.89368   0.99481146
653.91650   0.99176333
653.93939   0.99495753
653.96222   0.99652914
653.98505   0.99441476
654.00793   0.98672696
654.03076   0.98369961
654.05359   0.98943350
654.07635   0.98943767
654.09924   0.99346083
654.12201   0.99463477
654.14484   0.99112490
654.16760   0.99121526
654.19037   0.96378482
654.21320   0.94743884
654.23596   0.94698872
654.25867   0.95905718
654.28149   0.98135463
654.30426   0.97999984
654.32703   0.96681144
654.34973   0.92171669
654.37244   0.86596645
654.39520   0.86562168
654.41791   0.91201608
654.44061   0.95184657
654.46332   0.98588289
654.48608   0.98720072
654.50873   0.98785944
654.53143   0.98027882
654.55414   0.97324872
654.57678   0.96654298
654.59949   0.97232001
654.62219   0.98629245
654.64484   0.98675696
654.66748   0.99057076
654.69012   0.98789338
654.71277   0.97391888
654.73547   0.95344463
654.75806   0.93439413
654.78064   0.93573302
654.80334   0.93923879
654.82593   0.91771464
654.84851   0.89023082
654.87115   0.89216502
654.89368   0.92122911
654.91632   0.95622353
654.93890   0.98416682
654.96149   0.98909658
654.98401   0.99141821
655.00659   0.98826977
655.02917   0.99410869
655.05170   0.98653595
655.07428   0.98526214
655.09680   0.98706733
655.11932   0.98749420
655.14185   0.97766921
655.16437   0.97593229
655.18689   0.96105674
655.20941   0.92671983
655.23187   0.88744734
655.25439   0.85923748
655.27692   0.88307967
655.29938   0.91893744
655.32184   0.94724145
655.34436   0.94591406
655.36682   0.93155247
655.38928   0.93608231
655.41174   0.94780750
655.43414   0.96111678
655.45660   0.96577567
655.47900   0.96606152
655.50146   0.96690094
655.52386   0.97580145
655.54626   0.97715133
655.56873   0.97644351
655.59113   0.98595469
655.61346   0.98701513
655.63586   0.98754307
655.65826   0.97789425
655.68066   0.95646833
655.70300   0.93926762
655.72540   0.95175652
655.74774   0.97450961
655.77008   0.99646085
655.79242   1.00621360
655.81482   1.02663800
655.83710   1.06353070
655.85944   1.11264320
655.88177   1.15953820
655.90411   1.21548060
655.92639   1.26227330
655.94867   1.32938010
655.97101   1.39791320
655.99329   1.47472630
656.01556   1.56534450
656.03784   1.67532020
656.06012   1.80629640
656.08240   1.94479220
656.10461   2.06786060
656.12689   2.19465930
656.14911   2.30496940
656.17139   2.39414910
656.19360   2.42306140
656.21588   2.38852620
656.23810   2.33464280
656.26031   2.28393850
656.28253   2.25364990
656.30469   2.23252150
656.32690   2.22666340
656.34906   2.26225630
656.37128   2.29015100
656.39343   2.25873140
656.41565   2.24920630
656.43781   2.25517320
656.45996   2.25399690
656.48212   2.21324040
656.50427   2.11894480
656.52643   2.01100540
656.54852   1.85435010
656.57068   1.71398360
656.59277   1.58466050
656.61487   1.46675370
656.63702   1.38022140
656.65912   1.30627500
656.68121   1.25387870
656.70331   1.20557350
656.72540   1.16981330
656.74744   1.12957490
656.76953   1.10848660
656.79163   1.07611940
656.81366   1.06046430
656.83575   1.04016230
656.85779   1.01130960
656.87982   0.99923705
656.90186   0.99593305
656.92389   1.00133110
656.94592   0.99769148
656.96790   1.00256930
656.98993   1.00770060
657.01196   1.01003140
657.03394   0.99638195
657.05597   0.98911064
657.07794   0.98501652
657.09991   0.98185536
657.12189   0.98889074
657.14386   0.98071327
657.16583   0.95904042
657.18781   0.91782607
657.20972   0.90342801
657.23169   0.92300127
657.25360   0.96471179
657.27551   0.98462032
657.29749   0.99449462
657.31940   0.98427395
657.34131   0.98169762
657.36316   0.98581601
657.38513   0.98578976
657.40698   0.98766195
657.42883   0.97931678
657.45081   0.93401881
657.47266   0.88727720
657.49451   0.88638356
657.51636   0.92172486
657.53821   0.94811152
657.56006   0.96851464
657.58191   0.97251981
657.60376   0.96315746
657.62561   0.95624601
657.64740   0.96060787
657.66925   0.96007237
657.69104   0.96618250
657.71283   0.97047550
657.73468   0.97925425
657.75647   0.98576028
657.77820   0.98545273
657.79999   0.98548495
657.82178   0.98639070
657.84357   0.99159262
657.86536   0.98043246
657.88708   0.98508085
657.90881   0.98139113
657.93054   0.98634706
657.95227   0.98854196
657.97406   0.99138749
657.99573   0.99332827
658.01746   0.98711412
658.03918   0.96802175
658.06091   0.95167853
658.08264   0.94308655
658.10431   0.95470106
658.12604   0.97659649
658.14771   0.97886083
658.16937   0.98754373
658.19104   0.98719540
658.21271   0.98561731
658.23438   0.99146571
658.25598   0.98769260
658.27765   0.99575507
658.29926   0.98500922
658.32092   0.97656306
658.34253   0.96976320
658.36414   0.97285223
658.38580   0.98504613
658.40735   0.99946426
658.42902   1.00580750
658.45056   1.00478660
658.47217   1.00439990
658.49377   1.00389350
658.51532   1.00246900
658.53693   0.99312898
658.55847   0.98825550
658.58002   0.99530777
658.60162   0.99580902
658.62317   0.98026118
658.64465   0.94816148
658.66620   0.94184668
658.68774   0.96941965
658.70929   0.99814732
658.73077   1.01323590
658.75232   1.00990100
658.77380   1.01214400
658.79529   1.01434370
658.81677   1.01649370
658.83826   1.00929960
658.85974   1.01012990
658.88123   1.01241280
658.90271   1.01642560
658.92413   1.02233630
658.94556   1.02672040
658.96704   1.01926710
658.98846   1.01737050
659.00989   1.01599770
659.03137   1.01245800
659.05273   1.01942820
659.07416   1.01834920
659.09558   1.01257210
659.11700   1.01764400
659.13837   1.01599050
659.15979   1.01388590
659.18115   1.01212260
659.20251   1.01159610
659.22394   1.01377530
659.24524   1.01596730
659.26666   1.00469420
659.28796   1.00733750
659.30933   0.99703245
659.33069   1.00756790
659.35199   1.00350070
659.37335   0.99705585
659.39465   1.00201700
659.41595   1.00032000
659.43732   0.98404582
659.45862   0.99577597
659.47986   1.00008200
659.50116   0.99999760
659.52246   1.00214460
659.54376   1.01327290
659.56506   1.00293510
659.58630   1.00583610
659.60754   1.00369580
659.62878   1.00342720
659.65002   0.99135563
659.67126   0.99356685
659.69250   0.99456058
659.71375   0.99859029
659.73499   0.99546482
659.75623   0.99641253
659.77740   0.99846165
659.79865   0.99132789
659.81982   1.02155480
659.84100   0.97028976
659.86218   0.96935553
659.88336   0.96792968
